voltage(V),current(A)
3.855026,-0.48
3.852478,-0.47
3.853458,-0.47
3.852772,-0.47
3.85287,-0.47
3.821804,-0.23
3.886484,-5.08
3.888934,-5.09
3.888542,-5.09
3.889522,-5.09
3.889522,-5.09
3.890404,-5.09
3.8909920000000002,-5.09
3.8918739999999996,-5.09
3.8927560000000003,-5.09
3.8932459999999995,-5.09
3.8948139999999998,-5.10
3.8951079999999996,-5.10
3.8957939999999995,-5.10
3.8960879999999998,-5.10
3.8968719999999997,-5.10
3.8967739999999997,-5.10
3.897068,-5.10
3.8973619999999998,-5.10
3.897264,-5.10
3.897754,-5.10
3.898342,-5.10
3.898342,-5.10
3.898538,-5.10
3.8982439999999996,-5.10
3.89893,-5.10
3.899224,-5.10
3.8994199999999997,-5.10
3.899616,-5.10
3.900106,-5.10
3.900498,-5.10
3.901086,-5.10
3.90138,-5.10
3.901674,-5.10
3.902262,-5.10
3.902752,-5.10
3.90334,-5.10
3.904026,-5.10
3.904124,-5.10
3.904516,-5.10
3.90481,-5.10
3.905202,-5.10
3.905692,-5.10
3.905986,-5.10
3.906084,-5.10
3.906476,-5.10
3.906378,-5.10
3.906378,-5.10
3.906966,-5.10
3.90677,-5.10
3.907358,-5.10
3.9074560000000003,-5.10
3.907358,-5.10
3.907652,-5.10
3.9081420000000002,-5.10
3.908338,-5.10
3.908338,-5.10
3.90824,-5.10
3.908338,-5.10
3.908436,-5.10
3.90824,-5.10
3.9090239999999996,-5.10
3.908828,-5.10
3.9094160000000002,-5.10
3.9094160000000002,-5.10
3.9099060000000003,-5.10
3.9103959999999995,-5.10
3.9104939999999995,-5.10
3.9107879999999997,-5.10
3.9108859999999996,-5.10
3.911278,-5.10
3.9115719999999996,-5.10
3.9120619999999997,-5.10
3.9119639999999998,-5.10
3.912454,-5.10
3.912454,-5.10
3.91314,-5.10
3.9140219999999997,-5.10
3.9145119999999998,-5.10
3.9141199999999996,-5.10
3.914414,-5.10
3.9151,-5.10
3.9153939999999996,-5.10
3.9157859999999998,-5.10
3.9153939999999996,-5.10
3.9157859999999998,-5.10
3.9158839999999997,-5.10
3.916178,-5.10
3.916178,-5.10
3.916374,-5.10
3.9164719999999997,-5.10
3.916668,-5.10
3.9170599999999998,-5.10
3.917256,-5.10
3.916864,-5.10
3.917256,-5.10
3.917256,-5.10
3.917648,-5.10
3.917452,-5.10
3.917648,-5.10
3.91755,-5.10
3.91755,-5.10
3.91804,-5.10
3.918138,-5.10
3.91804,-5.10
3.918138,-5.10
3.91804,-5.10
3.9184319999999997,-5.10
3.91853,-5.10
3.91853,-5.10
3.918726,-5.10
3.918824,-5.10
3.918824,-5.10
3.919118,-5.10
3.9190199999999997,-5.10
3.919412,-5.10
3.919706,-5.10
3.920098,-5.10
3.9196079999999998,-5.10
3.92049,-5.10
3.92049,-5.10
3.921176,-5.10
3.92098,-5.10
3.921372,-5.10
3.92147,-5.10
3.921862,-5.10
3.922254,-5.11
3.921862,-5.10
3.922646,-5.10
3.923136,-5.11
3.923234,-5.10
3.923528,-5.11
3.923724,-5.10
3.92392,-5.10
3.923626,-5.10
3.92343,-5.10
3.92441,-5.11
3.924312,-5.10
3.924802,-5.11
3.924998,-5.11
3.924802,-5.10
3.9252920000000002,-5.10
3.92539,-5.10
3.92539,-5.10
3.9258800000000003,-5.10
3.925978,-5.10
3.926076,-5.10
3.9261739999999996,-5.10
3.9265660000000002,-5.10
3.9263699999999995,-5.10
3.9263699999999995,-5.10
3.9264680000000003,-5.10
3.9267619999999996,-5.10
3.9268599999999996,-5.10
3.9270560000000003,-5.10
3.9272519999999997,-5.10
3.9274479999999996,-5.10
3.9272519999999997,-5.10
3.9274479999999996,-5.10
3.9274479999999996,-5.10
3.9274479999999996,-5.10
3.9273499999999997,-5.10
3.9274479999999996,-5.10
3.9278399999999998,-5.10
3.9274479999999996,-5.10
3.9276439999999995,-5.10
3.9276439999999995,-5.10
3.9278399999999998,-5.10
3.9277420000000003,-5.10
3.9280359999999996,-5.10
3.9281339999999996,-5.10
3.9277420000000003,-5.10
3.92833,-5.10
3.9279379999999997,-5.10
3.9288199999999995,-5.10
3.92833,-5.10
3.9287219999999996,-5.10
3.9288199999999995,-5.10
3.929016,-5.10
3.928918,-5.10
3.9293099999999996,-5.10
3.9292119999999997,-5.10
3.9293099999999996,-5.10
3.9293099999999996,-5.10
3.9300939999999995,-5.10
3.929702,-5.10
3.93029,-5.10
3.9300939999999995,-5.10
3.9306819999999996,-5.10
3.9310739999999997,-5.11
3.9306819999999996,-5.10
3.931368,-5.10
3.93078,-5.10
3.9311719999999997,-5.11
3.931368,-5.10
3.9316619999999998,-5.10
3.931368,-5.10
3.932152,-5.10
3.9324459999999997,-5.11
3.9323479999999997,-5.10
3.93323,-5.11
3.9331319999999996,-5.11
3.933328,-5.10
3.9331319999999996,-5.10
3.933916,-5.10
3.933916,-5.11
3.9342099999999998,-5.11
3.934504,-5.11
3.934798,-5.11
3.934602,-5.11
3.934798,-5.11
3.934504,-5.11
3.9347,-5.10
3.935288,-5.11
3.935386,-5.11
3.9349939999999997,-5.11
3.935386,-5.11
3.9354839999999998,-5.11
3.935876,-5.11
3.9355819999999997,-5.10
3.935288,-5.10
3.935974,-5.10
3.9361699999999997,-5.11
3.936366,-5.11
3.936268,-5.11
3.9361699999999997,-5.11
3.936268,-5.10
3.9361699999999997,-5.10
3.9367579999999998,-5.11
3.936562,-5.10
3.9367579999999998,-5.10
3.936856,-5.10
3.9367579999999998,-5.10
3.936464,-5.10
3.93715,-5.10
3.936856,-5.10
3.937248,-5.10
3.936954,-5.10
3.936856,-5.10
3.937248,-5.10
3.937248,-5.10
3.9374439999999997,-5.10
3.9374439999999997,-5.10
3.937346,-5.10
3.9374439999999997,-5.10
3.937542,-5.10
3.937346,-5.10
3.937836,-5.10
3.93764,-5.10
3.937738,-5.10
3.937738,-5.10
3.9380319999999998,-5.10
3.93764,-5.10
3.937934,-5.10
3.937934,-5.10
3.937836,-5.10
3.937934,-5.10
3.938424,-5.10
3.938326,-5.10
3.938718,-5.10
3.938424,-5.10
3.938914,-5.10
3.938522,-5.10
3.938718,-5.10
3.939502,-5.10
3.93862,-5.10
3.938914,-5.10
3.939404,-5.10
3.939404,-5.10
3.9080439999999994,-0.58
3.906672,-0.58
3.90579,-0.57
3.90481,-0.57
3.905006,-0.57
3.904712,-0.57
3.904222,-0.57
3.904222,-0.57
3.903634,-0.57
3.903536,-0.57
3.903046,-0.57
3.903046,-0.57
3.902262,-0.57
3.902752,-0.57
3.901478,-0.57
3.902066,-0.57
3.900792,-0.56
3.9004,-0.56
3.899616,-0.56
3.899714,-0.56
3.899518,-0.56
3.89893,-0.56
3.8988319999999996,-0.56
3.8988319999999996,-0.56
3.8980479999999997,-0.56
3.897754,-0.56
3.897264,-0.56
3.897068,-0.56
3.8967739999999997,-0.56
3.896578,-0.56
3.8961859999999997,-0.56
